BE-eV	Intensity
0	-0.002287179
0.03	-0.0011435895
0.06	0.04315415
0.09	0.0863083
0.12	0.04315415
0.15	-0.088013125
0.17	-0.264612625
0.2	-0.3097669
0.23	-0.177748425
0.26	0.000579450000000002
0.29	0.09032095
0.31	0.045160475
0.34	0
0.37	0.0463344
0.4	0.139299825
0.42	0.18652535
0.45	0.140488825
0.48	0.094457375
0.5	0.047226775
0.53	-0.048131875
0.55	-0.047830175
0.5799999	0.048742925
0.6099999	0.1955853
0.6299999	0.343657475
0.6599998	0.29553075
0.6799998	0.048737775
0.7099998	-0.09995575
0.7299998	0.000625199999999999
0.7599998	0.10120615
0.7799997	-0.000630424999999997
0.8099997	-0.102467
0.8299997	0.000635625000000001
0.8499997	0.208116
0.8799996	0.365644575
0.8999996	0.420082375
0.9299996	0.369505475
0.9499996	0.265458
0.9699996	0.2139258
0.9999995	0.215231225
1.02	0.21654195
1.039999	0.1630635
1.069999	0.054464175
1.089999	0
1.109999	0
1.129999	0
1.159999	-0.056466275
1.179999	-0.226541825
1.199999	-0.397973575
1.219999	-0.4571577
1.239999	-0.3442306
1.269999	-0.114970925
1.289999	0
1.309999	0.05886335
1.329999	0.176937925
1.349999	0.2368463
1.369999	0.178332225
1.389999	-0.000702600000000005
1.409999	-0.18114265
1.429999	-0.2424672
1.449999	-0.18255885
1.469999	-0.0609712
1.499999	-0.06204375
1.519999	-0.1240875
1.539999	0.000721949999999999
1.559999	0.251788975
1.579999	0.442267375
1.599999	0.380230625
1.609999	0.126986525
1.629999	0
1.649999	-0.12993035
1.669999	-0.325197375
1.689999	-0.3263133
1.709999	-0.196755875
1.729999	-0.0657096
1.749999	0
1.769999	0.06721545
1.789999	0.1344309
1.809999	-0.000761474999999998
1.819999	-0.20431365
1.839999	-0.204696525
1.859999	-0.0683598
1.879999	0.139034175
1.899999	0.417879775
1.909999	0.62954445
1.929999	0.70296095
1.949999	0.5647171
1.969999	0.355010075
1.979999	0.285900475
1.999999	0.21521605
2.019999	0.07187065
2.039999	0
2.049999	0.073468875
2.069999	0.442426
2.089998	0.8872757
2.099998	0.9651977
2.119998	0.670927925
2.139998	0.0730494
2.159998	-0.45381945
2.169998	-0.4546407
2.189998	-0.22855665
2.199998	0.000830174999999989
2.219998	0.309436
2.239998	0.3874232
2.249998	0.155133825
2.269998	-0.157651175
2.279998	-0.236057975
2.299998	-0.07882635
2.319998	-0.080098575
2.329998	-0.32124855
2.349998	-0.564109975
2.359998	-0.647637525
2.379998	-0.56926255
2.389998	-0.408650425
2.409998	-0.2463147
2.419998	0.083991175
2.439998	0.49959695
2.449998	0.584469775
2.469998	0.41954875
2.479998	0.42263465
2.499998	0.6799335
2.509998	0.9390173
2.529998	0.77059275
2.539998	0.34397525
2.559998	0.260446625
2.569998	0.436031325
2.589998	0.349364225
2.599998	-0.266332525
2.609998	-0.9745993
2.629998	-1.24504825
2.639998	-0.98191335
2.659998	-0.44786695
2.669998	-0.0898491
2.679998	0.091237025
2.699998	0.274176875
2.709998	0.366812875
2.719998	0.090764875
2.739998	-0.46460595
2.749998	-0.744881
2.769998	-0.46649135
2.779998	0.000947449999999989
2.789998	0.0940556
2.799998	0
2.819998	-0.09596655
2.829998	-0.0954848
2.839998	0.1938617
2.859998	0.09547835
2.869998	-0.58644435
2.879998	-0.97903505
2.899998	-0.786156325
2.909998	-0.5932906
2.919998	-0.696103425
2.929998	-0.7989292
2.949998	-0.6011732
2.959998	-0.20072085
2.969998	0.305563
2.979998	0.91819275
2.999998	1.22827175
3.009998	1.027580225
3.019998	0.8269087
3.029998	0.622201025
3.039998	0.207740025
3.059998	0.1053959
3.069998	0.316707125
3.079998	0.4236414
3.089998	0.2118207
3.099998	0
3.109998	0
3.129997	0.21699845
3.139997	0.4339969
3.149997	0.21699845
3.159997	-0.110072625
3.169997	-0.3307457
3.179997	-0.4424035
3.189997	-0.4445216
3.209997	-0.44664645
3.219997	-0.561506675
3.229997	-0.789638575
3.239997	-0.90612285
3.249997	-0.6817415
3.259997	-0.227605825
3.269997	-0.11542705
3.279997	-0.4627978
3.289997	-0.812351125
3.299997	-0.815083625
3.309997	-0.349553325
3.329997	-1.74999999999481e-06
3.339997	-0.356162925
3.349997	-0.83160765
3.359997	-0.8343832
3.369997	-0.598612325
3.379997	0.00223942499999999
3.389997	0.96986495
3.399997	1.33609925
3.409997	0.607568175
3.419997	-0.9856839
3.429997	-1.97137815
3.439997	-1.1100345
3.449997	0.001141475
3.459997	0.12435065
3.469997	0.25214675
3.479997	0.88424725
3.489997	1.139284975
3.499997	0.76222725
3.509997	0.896435325
3.519997	1.6708928
3.529997	1.67498655
3.539997	0.77505285
3.549997	0.3910568
3.559997	0.91699175
3.569997	1.445305
3.579997	1.4506485
3.589997	1.059320925
3.599997	0.6662227
3.609997	0.671923125
3.619997	0.8095599
3.629997	0.677051475
3.639997	0.40780505
3.649997	-0.138573125
3.659997	-0.687387325
3.669997	-0.412063525
3.679997	0.835172425
3.689997	2.229601875
3.699997	2.72729275
3.709997	2.5321365
3.719997	2.05118775
3.729997	1.99345725
3.739997	3.00459275
3.749997	4.1649745
3.759997	5.196658
3.769997	6.3896895
3.779997	6.56845775
3.789997	5.57292475
3.799997	5.75032925
3.809997	8.1472445
3.819997	10.56194675
3.829997	9.41117475
3.839997	6.0101675
3.849997	4.688982
3.859997	5.928236
3.869997	9.40041975
3.879997	12.905573
3.889997	14.5975425
3.899997	16.454175
3.909997	20.8354975
3.919997	31.103935
3.929997	47.61567
3.939997	65.34294
3.949997	80.7878225
3.959997	95.2055925
3.969997	111.38818
3.979997	135.755725
3.989997	168.09995
3.999997	200.74425
4.009997	225.474225
4.019997	235.111075
4.029997	238.5495
4.039998	239.176
4.049998	234.142375
4.059998	231.945475
4.069998	238.3772
4.079998	258.9007
4.089999	295.4376
4.099999	337.6477
4.109999	375.5322
4.119999	414.570175
4.13	469.62705
4.14	535.8791
4.15	591.6526
4.16	632.050475
4.170001	652.7724
4.180001	639.039525
4.190001	615.530925
4.200001	609.492425
4.210001	589.068875
4.220002	540.77405
4.230002	487.18215
4.240002	437.62995
4.250002	389.66595
4.260003	328.4793
4.270003	261.074225
4.280003	214.4771
4.290003	183.210225
4.300004	154.07525
4.310004	135.370525
4.320004	132.529925
4.330004	134.183375
4.340004	128.4594
4.350005	126.83505
4.360005	132.052825
4.370005	135.631275
4.380005	145.068975
4.390006	148.6349
4.400006	133.013525
4.410006	113.98185
4.420006	107.710875
4.430007	111.67485
4.440007	115.8894
4.450007	119.3125
4.460007	118.62205
4.470007	115.242225
4.480008	119.398375
4.490008	129.515075
4.500008	147.549175
4.510008	185.744275
4.520009	243.7085
4.530009	314.36365
4.540009	391.74135
4.550009	467.5538
4.560009	556.1492
4.57001	654.61655
4.58001	721.87945
4.59001	748.038275
4.60001	743.619925
4.610011	724.45395
4.620011	701.523525
4.630011	656.208
4.640011	586.787075
4.650012	511.873475
4.660012	437.310375
4.670012	362.309275
4.680012	296.510775
4.690012	258.35925
4.700013	239.049575
4.710013	218.498925
4.720013	200.503525
4.730013	191.2559
4.740014	193.618475
4.750014	205.7733
4.760014	213.20515
4.770014	226.260825
4.780015	249.232375
4.790015	250.338325
4.800015	237.33225
4.810015	238.371675
4.820015	238.214675
4.830016	227.74035
4.840016	224.3447
4.850016	225.7521
4.860016	224.378
4.870017	223.90505
4.880017	235.432
4.890017	243.367475
4.900017	238.4109
4.910017	248.95615
4.920018	254.4138
4.930018	236.759425
4.940018	221.98155
4.950018	221.140875
4.960019	226.126225
4.970019	218.5511
4.980019	212.807875
4.990019	221.539025
5.00002	226.76115
5.01002	237.679875
5.02002	244.642525
5.03002	231.661275
5.04002	219.285525
5.050021	210.994425
5.060021	203.030475
5.070021	197.446
5.080021	193.50685
5.090022	192.849175
5.100022	191.8739
5.110022	193.219975
5.120022	191.537225
5.130023	188.606825
5.140023	193.268675
5.150023	197.715225
5.160023	201.8877
5.170023	200.95765
5.180024	189.14885
5.190024	174.85275
5.200024	181.1362
5.210024	209.693275
5.220025	231.415325
5.230025	246.771225
5.240025	253.159125
5.250025	244.31
5.260026	243.9007
5.270026	244.267325
5.280026	239.637225
5.290026	240.741025
5.300026	257.462125
5.310027	314.669025
5.320027	377.736975
5.330027	424.971275
5.340027	495.464825
5.350028	593.3479
5.360028	718.3179
5.370028	840.843525
5.380028	909.41885
5.390028	914.656575
5.400029	893.184075
5.410029	862.35385
5.420029	792.964175
5.430029	722.941375
5.44003	681.040575
5.45003	647.5081
5.46003	672.8531
5.47003	746.205275
5.480031	802.968175
5.490031	864.81405
5.500031	944.38555
5.510031	984.2969
5.520031	945.8093
5.530032	892.4983
5.540032	845.156475
5.550032	775.5502
5.560032	715.077625
5.570033	670.632725
5.580033	640.529725
5.590033	654.907075
5.600033	698.8496
5.610034	764.294325
5.620034	839.043725
5.630034	852.596075
5.640034	811.79745
5.650034	787.4864
5.660035	781.756425
5.670035	762.6919
5.680035	734.261725
5.690035	701.84015
5.700036	684.450325
5.710036	672.70345
5.720036	656.881625
5.730036	654.7817
5.740036	663.30595
5.750037	677.64495
5.760037	712.34935
5.770037	768.625225
5.780037	813.67555
5.790038	889.621075
5.800038	986.28075
5.810038	999.2902
5.820038	944.3246
5.830039	873.838825
5.840039	787.53765
5.850039	734.91475
5.860039	709.27665
5.870039	666.17175
5.88004	673.9449
5.89004	740.1385
5.90004	804.032775
5.91004	859.302475
5.920041	894.694075
5.930041	933.1147
5.940041	986.4603
5.950041	1013.5535
5.960042	986.064025
5.970042	918.6787
5.980042	903.692575
5.990042	930.22845
6.000042	927.85645
6.010043	940.857225
6.020043	987.4228
6.030043	999.872075
6.040043	959.66645
6.050044	952.4661
6.060044	996.7295
6.070044	1010.135025
6.080044	1008.93305
6.090044	1019.243125
6.100045	965.09755
6.110045	931.3898
6.120045	975.993525
6.130045	981.78245
6.140046	956.68715
6.150046	963.2764
6.160046	1027.780775
6.170046	1104.3945
6.180047	1106.5775
6.190047	1092.6955
6.200047	1122.6035
6.210047	1130.9085
6.220047	1143.01125
6.230048	1147.66025
6.240048	1041.15345
6.250048	905.17405
6.260048	839.636875
6.270049	808.34415
6.280049	751.814
6.290049	670.706775
6.300049	577.802425
6.31005	486.84515
6.32005	402.645625
6.33005	283.2103
6.34005	165.90016
6.35005	96.175165
6.360051	72.9969075
6.370051	58.01572375
6.380051	25.991375
6.390051	25.97416375
6.400052	49.742685
6.410052	29.443685
6.420052	1.177205
6.430052	27.37942
6.440053	20.545035
6.450053	-23.634185
6.460053	-38.1821275
6.470053	-48.046555
6.480053	-67.9357575
6.490054	-89.9727375
6.500054	-83.7538075
6.510054	-36.6003625
6.520054	5.35342
6.530055	-2.684705
6.540055	5.169075
6.550055	34.670625
6.560055	12.65680225
6.570055	2.824787
6.580056	38.72793475
6.590056	59.09497
6.600056	21.570775
6.610056	-29.1634975
6.620057	-38.7855975
6.630057	-12.9576375
6.640057	21.7882575
6.650057	34.719865

